9 480		# first data record, number of data records 
Structure:	I2O4
Name:	
Author(Year):	JCGM (2020-02-17)
Temperature:	298K
Wavelength range: 
Bibliography:

121.4361105	0
122.4602911	0
123.4846759	0
124.5092652	0
125.5340589	0
126.5590571	0
127.5842599	0
128.6096673	0
129.6352793	0
130.6610962	0
131.6871178	0
132.7133444	0
133.7397758	0
134.7664123	0
135.7932538	0
136.8203005	0
137.8475523	0
138.8750094	0
139.9026717	0
140.9305395	0
141.9586126	0
142.9868913	0
144.0153755	0
145.0440653	1.66113E-31
146.0729608	4.98339E-31
147.1020621	2.15947E-30
148.1313691	9.96678E-30
149.160882	4.18605E-29
150.1906008	1.66445E-28
151.2205256	6.24419E-28
152.2506564	2.21811E-27
153.2809934	7.47392E-27
154.3115365	2.39279E-26
155.3422859	7.29128E-26
156.3732415	2.11815E-25
157.4044035	5.8757E-25
158.4357719	1.55874E-24
159.4673468	3.9604E-24
160.4991282	9.65101E-24
161.5311162	2.25874E-23
162.5633109	5.08379E-23
163.5957124	1.10177E-22
164.6283206	2.30198E-22
165.6611356	4.64229E-22
166.6941576	9.04639E-22
167.7273866	1.70532E-21
168.7608226	3.11301E-21
169.7944656	5.50865E-21
170.8283159	9.45859E-21
171.8623734	1.57739E-20
172.8966381	2.5573E-20
173.9311102	4.03409E-20
174.9657898	6.19735E-20
176.0006768	9.27954E-20
177.0357713	1.35539E-19
178.0710734	1.93268E-19
179.1065832	2.6925E-19
180.1423007	3.66754E-19
181.178226	4.88811E-19
182.2143592	6.37923E-19
183.2507002	8.15768E-19
184.2872493	1.02292E-18
185.3240063	1.25863E-18
186.3609715	1.52068E-18
187.3981448	1.80535E-18
188.4355264	2.10755E-18
189.4731162	2.421E-18
190.5109144	2.73861E-18
191.548921	3.05288E-18
192.5871361	3.35638E-18
193.6255597	3.6422E-18
194.6641919	3.90443E-18
195.7030328	4.13846E-18
196.7420824	4.34123E-18
197.7813408	4.51135E-18
198.820808	4.64905E-18
199.8604842	4.75605E-18
200.9003693	4.83531E-18
201.9404635	4.89067E-18
202.9807668	4.92654E-18
204.0212793	4.94751E-18
205.062001	4.95798E-18
206.1029319	4.96193E-18
207.1440723	4.96266E-18
208.185422	4.96267E-18
209.2269813	4.96357E-18
210.2687501	4.96616E-18
211.3107284	4.97045E-18
212.3529165	4.9758E-18
213.3953143	4.9811E-18
214.4379219	4.98494E-18
215.4807394	4.98575E-18
216.5237668	4.982E-18
217.5670042	4.97232E-18
218.6104516	4.95559E-18
219.6541092	4.93102E-18
220.6979769	4.89821E-18
221.7420549	4.85713E-18
222.7863432	4.80808E-18
223.8308418	4.75171E-18
224.8755509	4.68889E-18
225.9204705	4.62072E-18
226.9656006	4.5484E-18
228.0109414	4.47318E-18
229.0564929	4.39633E-18
230.1022551	4.31904E-18
231.1482281	4.24243E-18
232.194412	4.16749E-18
233.2408069	4.09507E-18
234.2874127	4.02586E-18
235.3342297	3.96042E-18
236.3812577	3.8992E-18
237.428497	3.84251E-18
238.4759475	3.79058E-18
239.5236094	3.74358E-18
240.5714826	3.70163E-18
241.6195673	3.66486E-18
242.6678635	3.63337E-18
243.7163713	3.60732E-18
244.7650908	3.58691E-18
245.814022	3.57237E-18
246.8631649	3.56402E-18
247.9125197	3.56222E-18
248.9620863	3.56742E-18
250.011865	3.58009E-18
251.0618557	3.60078E-18
252.1120584	3.63003E-18
253.1624734	3.66843E-18
254.2131005	3.71653E-18
255.26394	3.77488E-18
256.3149918	3.84397E-18
257.366256	3.92421E-18
258.4177327	4.01594E-18
259.469422	4.11937E-18
260.5213238	4.23461E-18
261.5734384	4.36161E-18
262.6257656	4.50017E-18
263.6783057	4.64994E-18
264.7310587	4.8104E-18
265.7840245	4.98089E-18
266.8372034	5.16056E-18
267.8905954	5.34844E-18
268.9442004	5.54342E-18
269.9980187	5.74426E-18
271.0520502	5.94962E-18
272.1062951	6.1581E-18
273.1607533	6.3682E-18
274.215425	6.57843E-18
275.2703102	6.78727E-18
276.3254089	6.9932E-18
277.3807214	7.19477E-18
278.4362475	7.39056E-18
279.4919874	7.57925E-18
280.5479412	7.75961E-18
281.6041088	7.93054E-18
282.6604904	8.09106E-18
283.7170861	8.24034E-18
284.7738959	8.37767E-18
285.8309198	8.50253E-18
286.888158	8.61453E-18
287.9456104	8.71343E-18
289.0032772	8.79916E-18
290.0611585	8.87176E-18
291.1192542	8.93142E-18
292.1775645	8.97843E-18
293.2360894	9.01322E-18
294.294829	9.03627E-18
295.3537834	9.04816E-18
296.4129525	9.04955E-18
297.4723366	9.0411E-18
298.5319356	9.02354E-18
299.5917496	8.99761E-18
300.6517787	8.96405E-18
301.7120229	8.92358E-18
302.7724824	8.87693E-18
303.8331571	8.82477E-18
304.8940472	8.76774E-18
305.9551527	8.70645E-18
307.0164736	8.64143E-18
308.0780101	8.57319E-18
309.1397622	8.50215E-18
310.20173	8.42869E-18
311.2639135	8.35312E-18
312.3263128	8.2757E-18
313.3889279	8.19663E-18
314.451759	8.11607E-18
315.5148061	8.03412E-18
316.5780693	7.95084E-18
317.6415486	7.86624E-18
318.7052441	7.78031E-18
319.7691558	7.69302E-18
320.8332839	7.6043E-18
321.8976284	7.51408E-18
322.9621893	7.42226E-18
324.0269668	7.32876E-18
325.0919608	7.23347E-18
326.1571716	7.1363E-18
327.222599	7.03716E-18
328.2882432	6.93599E-18
329.3541043	6.83272E-18
330.4201823	6.7273E-18
331.4864773	6.61972E-18
332.5529894	6.50995E-18
333.6197185	6.39802E-18
334.6866649	6.28396E-18
335.7538285	6.16783E-18
336.8212095	6.04969E-18
337.8888078	5.92966E-18
338.9566236	5.80783E-18
340.0246569	5.68436E-18
341.0929078	5.55937E-18
342.1613763	5.43305E-18
343.2300626	5.30557E-18
344.2989666	5.17711E-18
345.3680885	5.04787E-18
346.4374283	4.91807E-18
347.5069861	4.7879E-18
348.576762	4.65758E-18
349.646756	4.52732E-18
350.7169681	4.39734E-18
351.7873986	4.26784E-18
352.8580473	4.13905E-18
353.9289144	4.01115E-18
355	3.88434E-18
356.0713041	3.75881E-18
357.1428268	3.63474E-18
358.2145681	3.51229E-18
359.2865282	3.39164E-18
360.358707	3.27291E-18
361.4311047	3.15626E-18
362.5037213	3.04179E-18
363.576557	2.92964E-18
364.6496116	2.81989E-18
365.7228854	2.71263E-18
366.7963784	2.60794E-18
367.8700906	2.50588E-18
368.9440222	2.40651E-18
370.0181732	2.30986E-18
371.0925436	2.21598E-18
372.1671335	2.12487E-18
373.241943	2.03655E-18
374.3169722	1.95103E-18
375.3922212	1.86829E-18
376.4676899	1.78832E-18
377.5433785	1.71111E-18
378.619287	1.63661E-18
379.6954155	1.5648E-18
380.771764	1.49563E-18
381.8483328	1.42907E-18
382.9251217	1.36505E-18
384.0021308	1.30354E-18
385.0793603	1.24446E-18
386.1568103	1.18776E-18
387.2344806	1.13338E-18
388.3123716	1.08126E-18
389.3904831	1.03133E-18
390.4688153	9.83512E-19
391.5473682	9.37754E-19
392.626142	8.93982E-19
393.7051366	8.52131E-19
394.7843522	8.1213E-19
395.8637888	7.73915E-19
396.9434465	7.37417E-19
398.0233253	7.02571E-19
399.1034253	6.69314E-19
400.1837466	6.37581E-19
401.2642893	6.0731E-19
402.3450534	5.78441E-19
403.426039	5.50915E-19
404.5072461	5.24675E-19
405.5886749	4.99664E-19
406.6703254	4.75829E-19
407.7521976	4.53118E-19
408.8342916	4.3148E-19
409.9166076	4.10867E-19
410.9991455	3.91231E-19
412.0819054	3.72528E-19
413.1648875	3.54715E-19
414.2480917	3.3775E-19
415.3315182	3.21593E-19
416.4151669	3.06206E-19
417.4990381	2.91553E-19
418.5831317	2.77598E-19
419.6674478	2.64309E-19
420.7519865	2.51654E-19
421.8367478	2.39602E-19
422.9217318	2.28125E-19
424.0069387	2.17194E-19
425.0923684	2.06784E-19
426.178021	1.9687E-19
427.2638966	1.87427E-19
428.3499953	1.78434E-19
429.4363171	1.69869E-19
430.5228621	1.6171E-19
431.6096304	1.5394E-19
432.696622	1.46539E-19
433.783837	1.39489E-19
434.8712755	1.32774E-19
435.9589375	1.26379E-19
437.0468232	1.20287E-19
438.1349325	1.14485E-19
439.2232656	1.0896E-19
440.3118225	1.03697E-19
441.4006033	9.86852E-20
442.4896081	9.39127E-20
443.5788368	8.93683E-20
444.6682897	8.50415E-20
445.7579668	8.09222E-20
446.847868	7.7001E-20
447.9379936	7.32688E-20
449.0283436	6.9717E-20
450.1189179	6.63374E-20
451.2097168	6.31224E-20
452.3007403	6.00645E-20
453.3919885	5.71567E-20
454.4834613	5.43924E-20
455.575159	5.17652E-20
456.6670815	4.92691E-20
457.7592289	4.68983E-20
458.8516013	4.46475E-20
459.9441988	4.25115E-20
461.0370215	4.04854E-20
462.1300693	3.85645E-20
463.2233424	3.67444E-20
464.3168409	3.50208E-20
465.4105647	3.33899E-20
466.5045141	3.18478E-20
467.598689	3.03909E-20
468.6930896	2.90158E-20
469.7877158	2.77193E-20
470.8825678	2.64983E-20
471.9776456	2.53499E-20
473.0729493	2.42714E-20
474.1684791	2.32602E-20
475.2642348	2.23139E-20
476.3602167	2.143E-20
477.4564247	2.06065E-20
478.552859	1.98413E-20
479.6495196	1.91323E-20
480.7464067	1.84779E-20
481.8435202	1.78762E-20
482.9408602	1.73257E-20
484.0384268	1.68248E-20
485.1362201	1.63721E-20
486.2342401	1.59663E-20
487.332487	1.56062E-20
488.4309607	1.52905E-20
489.5296614	1.50182E-20
490.6285891	1.47883E-20
491.727744	1.45998E-20
492.8271259	1.4452E-20
493.9267352	1.43439E-20
495.0265717	1.4275E-20
496.1266356	1.42444E-20
497.226927	1.42515E-20
498.3274458	1.42959E-20
499.4281923	1.4377E-20
500.5291664	1.44943E-20
501.6303683	1.46475E-20
502.7317979	1.48361E-20
503.8334555	1.50597E-20
504.9353409	1.53182E-20
506.0374544	1.56112E-20
507.139796	1.59386E-20
508.2423657	1.63001E-20
509.3451637	1.66955E-20
510.4481899	1.71248E-20
511.5514445	1.75877E-20
512.6549276	1.80843E-20
513.7586391	1.86144E-20
514.8625793	1.9178E-20
515.9667481	1.9775E-20
517.0711456	2.04055E-20
518.1757719	2.10694E-20
519.2806271	2.17668E-20
520.3857112	2.24975E-20
521.4910243	2.32618E-20
522.5965665	2.40596E-20
523.7023379	2.48909E-20
524.8083384	2.57558E-20
525.9145683	2.66544E-20
527.0210275	2.75866E-20
528.1277162	2.85525E-20
529.2346344	2.95522E-20
530.3417821	3.05857E-20
531.4491595	3.16531E-20
532.5567666	3.27544E-20
533.6646035	3.38895E-20
534.7726703	3.50586E-20
535.880967	3.62617E-20
536.9894937	3.74986E-20
538.0982505	3.87696E-20
539.2072374	4.00744E-20
540.3164546	4.14132E-20
541.4259021	4.27858E-20
542.5355799	4.41922E-20
543.6454881	4.56324E-20
544.7556269	4.71062E-20
545.8659962	4.86136E-20
546.9765962	5.01545E-20
548.087427	5.17287E-20
549.1984885	5.3336E-20
550.3097809	5.49764E-20
551.4213042	5.66497E-20
552.5330585	5.83555E-20
553.645044	6.00938E-20
554.7572605	6.18644E-20
555.8697083	6.36669E-20
556.9823874	6.5501E-20
558.0952979	6.73666E-20
559.2084398	6.92632E-20
560.3218133	7.11907E-20
561.4354183	7.31485E-20
562.549255	7.51364E-20
563.6633234	7.7154E-20
564.7776237	7.92009E-20
565.8921558	8.12766E-20
567.0069198	8.33807E-20
568.1219159	8.55128E-20
569.2371441	8.76724E-20
570.3526044	8.98589E-20
571.468297	9.2072E-20
572.5842219	9.43109E-20
573.7003792	9.65753E-20
574.8167689	9.88644E-20
575.9333912	1.01178E-19
577.0502461	1.03515E-19
578.1673336	1.05875E-19
579.2846539	1.08257E-19
580.402207	1.10662E-19
581.5199931	1.13087E-19
582.638012	1.15533E-19
583.7562641	1.17998E-19
584.8747492	1.20483E-19
585.9934675	1.22985E-19
587.1124191	1.25505E-19
588.231604	1.28043E-19
589.3510223	1.30596E-19
590.4706741	1.33164E-19
591.5905595	1.35747E-19
592.7106784	1.38344E-19
593.8310311	1.40954E-19
594.9516175	1.43575E-19
596.0724378	1.46209E-19
597.193492	1.48852E-19
598.3147802	1.51506E-19
599.4363024	1.54168E-19
600.5580588	1.56838E-19
601.6800494	1.59515E-19
602.8022743	1.62199E-19
603.9247335	1.64888E-19
605.0474272	1.67582E-19
606.1703553	1.7028E-19
607.2935181	1.7298E-19
608.4169155	1.75683E-19
609.5405476	1.78387E-19
610.6644145	1.81091E-19
611.7885163	1.83794E-19
612.912853	1.86496E-19
614.0374248	1.89196E-19
615.1622316	1.91893E-19
616.2872736	1.94586E-19
617.4125509	1.97274E-19
618.5380634	1.99957E-19
619.6638114	2.02633E-19
620.7897948	2.05301E-19
621.9160137	2.07962E-19
623.0424682	2.10613E-19
624.1691585	2.13255E-19
625.2960845	2.15886E-19
626.4232463	2.18506E-19
627.550644	2.21113E-19
628.6782777	2.23707E-19
629.8061475	2.26288E-19
630.9342533	2.28854E-19
632.0625954	2.31405E-19
633.1911738	2.3394E-19
634.3199885	2.36458E-19
635.4490396	2.38958E-19
636.5783272	2.41441E-19

