27 192          # first data record, number of data records
Structure:	HONO
Name:	        nitrous acid
Author(Year):	JPL-2006(2006)
Temperature:	298K
Wavelength range:	184-396nm(rec)
Bibliography:

S.P. Sander, R.R. Friedl, D.M. Golden, M.J. Kurylo, G.K. Moortgat, H. Keller-Rudek, P.H. Wine, A.R. Ravishankara, C.E. Kolb, M.J. Molina, B.J. Finlayson-Pitts, R.E. Huie, V.L. Orkin, ÒChemical Kinetics and Photochemical Data for Use in Atmospheric Studies. Evaluation Number 15Ò, JPL Publication 06-2, Jet Propulsion Laboratory, Pasadena, 2006.
Comments:

JPL-2006 recommendation:

184-274 nm, data of

R.D. Kenner, F. Rohrer, and F. Stuhl, "OH(A) production in the 193-nm photolysis of HONO," J. Phys. Chem. 90, 2635-2639 (1986),

296-325 nm, 326-370 nm, and 371 -396 nm, 

averages over 1-nm, 0.5-nm, and 1-nm intervals, respectively, of the high-resolution spectrum of

J. Stutz, E.S. Kim, U. Platt, P. Bruno, C. Perrino, A. Febo, "UV-visible absorption cross sections of nitrous acid," J. Geophys. Res. 105, 14585-14592 (2000).
------------------------------------------------
lambda     sigma (cm^2)
 (nm)		
------------------------------------------------
184      8.50e-19
186      9.50e-19
188      1.06e-18
190      1.24e-18
192      1.43e-18
194      1.62e-18
196      1.79e-18
198      1.96e-18
200      2.10e-18
202      2.19e-18
204      2.23e-18
205      2.24e-18
206      2.23e-18
208      2.20e-18
210      2.13e-18
212      2.04e-18
214      1.93e-18
216      1.79e-18
218      1.64e-18
220      1.50e-18
222      1.35e-18
224      1.21e-18
226      1.08e-18
228      9.45e-19
230      8.45e-19
232      7.40e-19
234      6.60e-19
236      5.80e-19
238      5.00e-19
240      4.30e-19
242      3.70e-19
244      3.20e-19
246      2.75e-19
248      2.35e-19
250      2.00e-19
252      1.70e-19
254      1.45e-19
256      1.23e-19
258      1.03e-19
260      8.6e-20
262      7.3e-20
264      6.2e-20
266      5.3e-20
268      4.3e-20
270      3.7e-20
272      3.0e-20
274      2.5e-20
296      3.26e-21
297      5.65e-21
298      5.17e-21
299      4.29e-21
300      6.17e-21
301      6.90e-21
302      5.79e-21
303      9.25e-21
304      1.04e-20
305      1.57e-20
306      1.29e-20
307      9.16e-21
308      1.45e-20
309      2.01e-20
310      1.51e-20
311      2.07e-20
312      2.42e-20
313      2.25e-20
314      3.35e-20
315      2.54e-20
316      1.61e-20
317      3.21e-20
318      4.49e-20
319      3.19e-20
320      4.66e-20
321      5.96e-20
322      4.05e-20
323      4.56e-20
324      5.89e-20
325      4.05e-20
326      2.65e-20
326.5    3.55e-20
327.0    6.44e-20
327.5    1.026e-19
328.0    9.22e-20
328.5    6.38e-20
329.0    5.20e-20
329.5    6.12e-20
330.0    9.92e-20
330.5    1.506e-19
331.0    1.432e-19
331.5    9.88e-20
332.0    6.94e-20
332.5    6.00e-20
333.0    6.31e-20
333.5    7.11e-20
334.0    8.35e-20
334.5    8.37e-20
335.0    7.71e-20
335.5    6.55e-20
336.0    5.33e-20
336.5    4.36e-20
337.0    4.23e-20
337.5    5.13e-20
338.0    9.38e-20
338.5    1.652e-19
339.0    1.432e-19
339.5    9.96e-20
340.0    7.79e-20
340.5    8.51e-20
341.0    1.613e-19
341.5    3.152e-19
342.0    2.940e-19
342.5    1.847e-19
343.0    1.143e-19
343.5    8.29e-20
344.0    7.59e-20
344.5    8.18e-20
345.0    8.77e-20
345.5    9.10e-20
346.0    9.64e-20
346.5    8.87e-20
347.0    7.78e-20
347.5    7.06e-20
348.0    6.63e-20
348.5    6.26e-20
349.0    6.00e-20
349.5    6.47e-20
350.0    9.06e-20
350.5    1.495e-19
351.0    1.694e-19
351.5    1.407e-19
352.0    1.242e-19
352.5    1.281e-19
353.0    1.634e-19
353.5    2.849e-19
354.0    4.873e-19
354.5    4.434e-19
355.0    2.764e-19
355.5    1.640e-19
356.0    1.113e-19
356.5    9.35e-20
357.0    9.45e-20
357.5    1.008e-19
358.0    9.84e-20
358.5    9.02e-20
359.0    8.37e-20
359.5    7.67e-20
360.0    6.87e-20
360.5    6.32e-20
361.0    6.05e-20
361.5    5.95e-20
362.0    5.98e-20
362.5    6.35e-20
363.0    7.39e-20
363.5    9.22e-20
364.0    1.149e-19
364.5    1.271e-19
365.0    1.282e-19
365.5    1.319e-19
366.0    1.484e-19
366.5    1.843e-19
367.0    2.508e-19
367.5    3.518e-19
368.0    4.356e-19
368.5    4.137e-19
369.0    3.145e-19
369.5    2.172e-19
370      1.505e-19
371      9.49e-20
372      7.96e-20
373      6.30e-20
374      4.59e-20
375      3.55e-20
376      3.36e-20
377      3.66e-20
378      4.33e-20
379      5.66e-20
380      7.21e-20
381      9.38e-20
382      1.244e-19
383      1.703e-19
384      1.947e-19
385      1.609e-19
386      1.052e-19
387      6.59e-20
388      4.30e-20
389      2.81e-20
390      1.71e-20
391      9.92e-21
392      7.31e-21
393      5.97e-21
394      5.28e-21
395      4.03e-21
396      2.37e-21
