42 103          # first data record, number of data records
Structure:	N2O5
Name:	        dinitrogen pentoxide
Author(Year):	JPL-2006(2006)
Temperature:	195-298K
Wavelength range:	200-420nm(rec)
Bibliography:

S.P. Sander, R.R. Friedl, D.M. Golden, M.J. Kurylo, G.K. Moortgat, H. Keller-Rudek, P.H. Wine, A.R. Ravishankara, C.E. Kolb, M.J. Molina, B.J. Finlayson-Pitts, R.E. Huie, V.L. Orkin, ÒChemical Kinetics and Photochemical Data for Use in Atmospheric Studies. Evaluation Number 15Ò, JPL Publication 06-2, Jet Propulsion Laboratory, Pasadena, 2006.
Comments:

JPL-2006 recommendation:

200-208 nm, mean of the data of

F. Yao, I. Wilson, and H. Johnston, "Temperature-dependent ultraviolet absorption spectrum for dinitrogen pentoxide,"  J. Phys. Chem. 86, 3611-3615 (1982), and

B.A. Osborne, G. Marston, L. Kaminski, N.C. Jones, J.M. Gingell, N. Mason, I.C. Walker, J. Delwiche, and M.-J. Hubin-Franskin, "Vacuum ultraviolet spectrum of dinitrogen pentoxide," J. Quant. Spectrosc. Radiat. Transfer 64, 67-74 (2000),

210-240 nm, mean of the data of

F. Yao, I. Wilson, and H. Johnston, "Temperature-dependent ultraviolet absorption spectrum for dinitrogen pentoxide,"  J. Phys. Chem. 86, 3611-3615 (1982),


B.A. Osborne, G. Marston, L. Kaminski, N.C. Jones, J.M. Gingell, N. Mason, I.C. Walker, J. Delwiche, and M.-J. Hubin-Franskin, "Vacuum ultraviolet spectrum of dinitrogen pentoxide," J. Quant. Spectrosc. Radiat. Transfer 64, 67-74 (2000) (two data sets), and


M.H. Harwood, J.B. Burkholder, and A.R. Ravishankara, "Photodissociation of BrONO2 and N2O5: Quantum yields for NO3 production at 248, 308, and 352.5 nm," J. Phys. Chem. A 102, 1309-1317 (1998),

242-398 nm, data of

M.H. Harwood, J.B. Burkholder, and A.R. Ravishankara, "Photodissociation of BrONO2 and N2O5: Quantum yields for NO3 production at 248, 308, and 352.5 nm," J. Phys. Chem. A 102, 1309-1317 (1998),

400-420 nm, data of

M.H. Harwood, R.L. Jones, R.A. Cox, E. Lutman, and O.V. Rattigan, "Temperature-dependent absorption cross sections of N2O5," J. Photochem. Photobiol. A 73, 167-175 (1993).

------------------------------------------------
lambda     sigma (cm^2)
 (nm)		
------------------------------------------------
200    9.10e-18
202    8.42e-18
204    7.71e-18
206    6.82e-18
208    5.85e-18
210    4.45e-18
212    3.81e-18
214    3.22e-18
216    2.67e-18
218    2.20e-18
220    1.81e-18
222    1.51e-18
224    1.29e-18
226    1.13e-18
228    9.84e-19
230    8.82e-19
232    8.05e-19
234    7.40e-19
236    6.92e-19
238    6.46e-19
240    5.98e-19
242    5.31e-19
244    4.93e-19
246    4.56e-19
248    4.19e-19
250    3.86e-19
252    3.55e-19
254    3.26e-19
256    2.99e-19
258    2.75e-19
260    2.52e-19
262    2.31e-19
264    2.11e-19
266    1.94e-19
268    1.78e-19
270    1.62e-19
272    1.49e-19
274    1.37e-19
276    1.24e-19
278    1.14e-19
280    1.05e-19
282    9.59e-20
284    8.74e-20
286    7.94e-20
288    7.20e-20
290    6.52e-20
292    5.88e-20
294    5.29e-20
296    4.75e-20
298    4.26e-20
300    3.81e-20
302    3.40e-20
304    3.03e-20
306    2.70e-20
308    2.40e-20
310    2.13e-20
312    1.90e-20
314    1.68e-20
316    1.49e-20
318    1.33e-20
320    1.18e-20
322    1.05e-20
324    9.30e-21
326    8.26e-21
328    7.35e-21
330    6.54e-21
332    5.82e-21
334    5.18e-21
336    4.62e-21
338    4.12e-21
340    3.68e-21
342    3.28e-21
344    2.93e-21
346    2.62e-21
348    2.34e-21
350    2.10e-21
352    1.88e-21
354    1.67e-21
356    1.49e-21
358    1.33e-21
360    1.20e-21
362    1.07e-21
364    9.58e-22
366    8.52e-22
368    7.63e-22
370    6.85e-22
372    6.13e-22
374    5.45e-22
376    4.84e-22
378    4.31e-22
380    3.83e-22
382    3.41e-22
384    3.05e-22
386    2.73e-22
388    2.42e-22
390    2.15e-22
392    1.93e-22
394    1.72e-22
396    1.50e-22
398    1.34e-22
400    1.4e-22
410    9.0e-23
420    5.0e-23
